File: ATXG Data/BKG_XRR.DAT
;Bundle             = 1
;Partition          = 1
;Operator           = N.U. X-ray Dif. Fac
;Gonio              = ATX-G
;Memo               = J.B. Cohen X-ray Diffraction Facility
;IncidentMonochro   = Slit collimation
;CounterMonochro    = Receiving slit
;Attachment         = XY-STAGE
;Filter             =
;SlitName0          = XRR Compression 5*.5
;SlitName1          = Reciprocal SM Slit Collimation
;Counter            = SC-70
;KAlpha1            = 1.54056
;KAlpha2            = 1.54439
;KBata              = 0
;Target             = Cu
;KV                 = 50
;mA                 = 240
;AxisName           = 2Theta/Omega
;MeasurementMethod = Continuation
;Start              = 0
;Finish             = 6
;Speed              = 0.25
;FixedTime          =
;Width              = 0.02
;FullScale         = 1e+08
;Comment            =
;SampleName         =
;Xunit              = deg.
;Yunit              = CPS
0.0000 45096504.0
0.0400 49681864.0
0.0800 8791000.0
0.1200 898580.1
0.1600 107545.5
0.2000 60560.4
0.2400 49215.9
0.2800 38514.1
0.3200 33965.7
0.3600 30504.5
0.4000 28932.2
0.4400 26741.4
0.4800 22475.0
0.5200 17236.5
0.5600 12438.7
0.6000 9151.1
0.6400 6787.7
0.6800 5338.3
0.7200 4203.7
0.7600 3375.0
0.8000 2670.6
0.8400 2184.2
0.8800 1861.8
0.9200 1641.8
0.9600 1459.7
1.0000 1192.1
1.0400 996.7
1.0800 744.8
1.1200 591.8
1.1600 472.9
1.2000 420.6
1.2400 344.9
1.2800 308.4
1.3200 270.9
1.3600 241.1
1.4000 228.0
1.4400 227.3
1.4800 242.6
1.5200 259.7
1.5600 293.8
1.6000 288.2
1.6400 291.5
1.6800 289.3
1.7200 255.7
1.7600 231.9
1.8000 212.5
1.8400 176.9
1.8800 149.6
1.9200 128.6
1.9600 118.3
2.0000 111.7
2.0400 105.2
2.0800 109.0
2.1200 95.8
2.1600 91.3
2.2000 94.6
2.2400 97.7
2.2800 94.6
2.3200 101.7
2.3600 96.7
2.4000 102.1
2.4400 95.2
2.4800 106.7
2.5200 95.6
2.5600 81.9
2.6000 84.4
2.6400 74.2
2.6800 65.0
2.7200 57.5
2.7600 50.4
2.8000 55.0
2.8400 51.3
2.8800 49.4
2.9200 40.8
2.9600 48.3
3.0000 42.5
3.0400 45.4
3.0800 41.3
3.1200 45.0
3.1600 42.5
3.2000 42.7
3.2400 42.7
3.2800 44.2
3.3200 42.7
3.3600 41.5
3.4000 34.6
3.4400 32.7
3.4800 31.7
3.5200 29.4
3.5600 33.1
3.6000 28.3
3.6400 27.5
3.6800 27.1
3.7200 26.3
3.7600 27.5
3.8000 22.9
3.8400 22.3
3.8800 22.7
3.9200 22.9
3.9600 22.1
4.0000 18.8
4.0400 21.9
4.0800 23.1
4.1200 20.4
4.1600 23.1
4.2000 17.3
4.2400 22.5
4.2800 15.6
4.3200 17.1
4.3600 17.3
4.4000 14.6
4.4400 16.0
4.4800 17.5
4.5200 14.8
4.5600 15.2
4.6000 14.6
4.6400 13.8
4.6800 13.8
4.7200 11.0
4.7600 9.2
4.8000 10.0
4.8400 10.6
4.8800 7.3
4.9200 10.0
4.9600 7.7
5.0000 12.5
5.0400 6.7
5.0800 10.0
5.1200 7.9
5.1600 11.7
5.2000 9.6
5.2400 9.4
5.2800 8.8
5.3200 7.9
5.3600 6.7
5.4000 9.0
5.4400 7.7
5.4800 8.1
5.5200 7.3
5.5600 7.3
5.6000 7.5
5.6400 8.5
5.6800 5.8
5.7200 7.5
5.7600 7.7
5.8000 6.0
5.8400 7.9
5.8800 6.5
5.9200 7.3
5.9600 6.3
6.0000 7.3